# 4700 Reflector July 2008, peptide YEVQGEVFTKPQLWP
mz	intensity
1834.017039	396.569
1834.041229	342.647
1834.065419	325.817
1834.089609	276.797
1834.113799	277.778
1834.137990	305.556
1834.162181	312.745
1834.186372	260.948
1834.210563	225.49
1834.234754	218.464
1834.258946	241.013
1834.283137	278.105
1834.307329	337.909
1834.331521	320.752
1834.355713	277.124
1834.379905	272.876
1834.404097	267.81
1834.428290	250
1834.452483	225.817
1834.476675	199.51
1834.500868	229.248
1834.525062	303.922
1834.549255	347.712
1834.573448	339.869
1834.597642	363.562
1834.621836	350.163
1834.646030	234.477
1834.670224	183.987
1834.694418	201.961
1834.718613	276.797
1834.742807	302.124
1834.767002	289.869
1834.791197	294.118
1834.815392	318.791
1834.839587	329.902
1834.863783	344.118
1834.887978	364.052
1834.912174	373.529
1834.936370	394.444
1834.960566	380.229
1834.984762	340.033
1835.008958	314.379
1835.033155	322.712
1835.057352	320.425
1835.081548	270.752
1835.105745	267.157
1835.129943	306.536
1835.154140	338.889
1835.178337	361.601
1835.202535	359.967
1835.226733	360.131
1835.250931	376.634
1835.275129	395.588
1835.299327	378.922
1835.323526	320.098
1835.347724	306.863
1835.371923	383.987
1835.396122	392.974
1835.420321	325
1835.444520	336.111
1835.468720	370.098
1835.492919	316.013
1835.517119	216.176
1835.541319	199.673
1835.565519	234.314
1835.589719	230.882
1835.613919	282.19
1835.638120	404.575
1835.662320	415.686
1835.686521	343.137
1835.710722	328.431
1835.734923	374.183
1835.759125	407.19
1835.783326	350.163
1835.807528	283.007
1835.831730	307.516
1835.855931	388.072
1835.880134	399.183
1835.904336	344.935
1835.928538	324.673
1835.952741	362.418
1835.976944	433.333
1836.001146	455.065
1836.025350	364.869
1836.049553	248.529
1836.073756	221.569
1836.097960	307.68
1836.122163	352.941
1836.146367	367.484
1836.170571	418.301
1836.194775	394.771
1836.218980	305.882
1836.243184	268.954
1836.267389	274.673
1836.291594	297.549
1836.315799	320.588
1836.340004	383.987
1836.364209	435.131
1836.388415	407.843
1836.412620	364.216
1836.436826	301.797
1836.461032	256.699
1836.485238	212.745
1836.509444	192.157
1836.533651	199.673
1836.557857	257.19
1836.582064	300.98
1836.606271	315.196
1836.630478	323.693
1836.654685	357.026
1836.678892	370.588
1836.703100	351.307
1836.727308	280.229
1836.751515	244.608
1836.775723	291.503
1836.799932	377.288
1836.824140	364.216
1836.848348	331.863
1836.872557	357.516
1836.896766	359.967
1836.920975	337.745
1836.945184	301.797
1836.969393	283.17
1836.993603	286.765
1837.017812	283.497
1837.042022	226.797
1837.066232	238.235
1837.090442	300.817
1837.114652	299.183
1837.138863	246.078
1837.163073	224.673
1837.187284	235.621
1837.211495	243.301
1837.235706	241.503
1837.259917	317.974
1837.284128	376.144
1837.308340	359.804
1837.332552	385.294
1837.356763	424.02
1837.380975	414.216
1837.405188	410.294
1837.429400	470.915
1837.453612	482.353
1837.477825	423.203
1837.502038	414.543
1837.526251	466.013
1837.550464	458.66
1837.574677	364.052
1837.598890	284.641
1837.623104	264.052
1837.647318	285.784
1837.671532	288.889
1837.695746	281.699
1837.719960	230.556
1837.744174	171.405
1837.768389	162.092
1837.792604	227.778
1837.816819	373.856
1837.841034	502.941
1837.865249	510.621
1837.889464	528.431
1837.913680	606.536
1837.937895	595.588
1837.962111	427.288
1837.986327	301.144
1838.010543	309.314
1838.034759	342.647
1838.058976	333.987
1838.083193	324.51
1838.107409	369.771
1838.131626	403.105
1838.155843	364.869
1838.180061	315.033
1838.204278	295.425
1838.228496	294.118
1838.252713	308.66
1838.276931	336.275
1838.301149	359.477
1838.325367	318.301
1838.349586	271.895
1838.373804	289.869
1838.398023	341.503
1838.422242	326.307
1838.446461	261.601
1838.470680	275
1838.494899	303.758
1838.519119	277.124
1838.543339	259.967
1838.567558	278.431
1838.591778	333.66
1838.615998	354.902
1838.640219	354.248
1838.664439	338.235
1838.688660	351.471
1838.712881	320.588
1838.737102	294.771
1838.761323	261.111
1838.785544	311.601
1838.809765	406.209
1838.833987	550.327
1838.858209	927.288
1838.882430	1598.2
1838.906652	2360.46
1838.930875	2644.61
1838.955097	2228.76
1838.979320	1419.28
1839.003542	866.83
1839.027765	704.902
1839.051988	644.771
1839.076211	516.503
1839.100435	404.085
1839.124658	396.242
1839.148882	442.484
1839.173105	434.967
1839.197329	402.124
1839.221554	404.085
1839.245778	401.634
1839.270002	344.935
1839.294227	328.431
1839.318452	343.954
1839.342676	399.02
1839.366902	405.556
1839.391127	360.294
1839.415352	343.627
1839.439578	466.503
1839.463803	560.784
1839.488029	535.948
1839.512255	445.588
1839.536482	422.712
1839.560708	463.562
1839.584934	470.261
1839.609161	461.928
1839.633388	543.791
1839.657615	630.065
1839.681842	638.726
1839.706069	588.562
1839.730297	591.993
1839.754524	663.562
1839.778752	758.007
1839.802980	910.294
1839.827208	1514.54
1839.851437	3829.41
1839.875665	8963.56
1839.899894	15151.5
1839.924122	17486.3
1839.948351	13747.2
1839.972580	7697.71
1839.996809	4013.56
1840.021039	2885.95
1840.045268	2310.78
1840.069498	1697.88
1840.093728	1346.9
1840.117958	1214.87
1840.142188	1030.56
1840.166418	821.405
1840.190649	674.51
1840.214880	647.712
1840.239110	719.608
1840.263341	745.915
1840.287573	660.784
1840.311804	590.85
1840.336035	584.641
1840.360267	535.131
1840.384499	472.876
1840.408731	444.608
1840.432963	518.954
1840.457195	616.667
1840.481427	689.379
1840.505660	807.353
1840.529893	862.909
1840.554126	784.314
1840.578359	623.039
1840.602592	518.464
1840.626825	507.843
1840.651059	540.686
1840.675292	592.647
1840.699526	611.601
1840.723760	627.614
1840.747994	659.967
1840.772229	782.516
1840.796463	1000.16
1840.820698	1331.05
1840.844933	2582.52
1840.869168	6245.75
1840.893403	12087.9
1840.917638	16093.1
1840.941873	14558
1840.966109	9222.39
1840.990345	4845.1
1841.014581	3014.22
1841.038817	2315.85
1841.063053	1691.67
1841.087290	1123.53
1841.111526	864.216
1841.135763	805.882
1841.160000	770.261
1841.184237	662.582
1841.208474	582.353
1841.232711	568.301
1841.256949	561.438
1841.281186	514.379
1841.305424	509.477
1841.329662	545.261
1841.353900	569.281
1841.378139	557.68
1841.402377	479.085
1841.426616	474.673
1841.450855	588.726
1841.475094	754.575
1841.499333	855.392
1841.523572	817.81
1841.547811	698.693
1841.572051	586.275
1841.596291	537.091
1841.620531	534.967
1841.644771	523.366
1841.669011	493.464
1841.693251	511.601
1841.717492	562.418
1841.741733	625.817
1841.765973	653.105
1841.790215	680.719
1841.814456	787.909
1841.838697	1201.47
1841.862939	2501.63
1841.887180	5157.68
1841.911422	7998.37
1841.935664	8450.98
1841.959906	6072.71
1841.984148	3284.97
1842.008391	1883.17
1842.032634	1464.38
1842.056876	1225.82
1842.081119	1040.85
1842.105362	883.987
1842.129606	722.222
1842.153849	616.503
1842.178093	597.876
1842.202336	517.647
1842.226580	436.275
1842.250824	432.026
1842.275069	463.725
1842.299313	468.627
1842.323557	474.837
1842.347802	485.621
1842.372047	485.294
1842.396292	471.732
1842.420537	451.307
1842.444783	466.667
1842.469028	497.876
1842.493274	486.601
1842.517519	508.987
1842.541765	525.49
1842.566012	484.477
1842.590258	403.758
1842.614504	398.203
1842.638751	419.935
1842.662998	438.235
1842.687245	456.536
1842.711492	482.026
1842.735739	486.765
1842.759986	480.556
1842.784234	479.902
1842.808482	541.503
1842.832730	670.098
1842.856978	901.307
1842.881226	1577.45
1842.905474	2695.1
1842.929723	3398.04
1842.953971	2925.65
1842.978220	1781.05
1843.002469	1035.95
1843.026718	759.641
1843.050968	657.68
1843.075217	585.948
1843.099467	544.608
1843.123717	527.614
1843.147967	521.569
1843.172217	501.634
1843.196467	445.261
1843.220717	420.261
1843.244968	407.026
1843.269219	396.569
1843.293470	421.732
1843.317721	483.007
1843.341972	538.072
1843.366223	513.399
1843.390475	399.183
1843.414727	315.196
1843.438979	270.425
1843.463231	381.536
1843.487483	492.484
1843.511735	514.379
1843.535988	483.66
1843.560240	470.425
1843.584493	394.281
1843.608746	375
1843.632999	378.595
1843.657253	407.516
1843.681506	418.791
1843.705760	368.464
1843.730013	288.072
1843.754267	266.34
1843.778522	286.438
1843.802776	388.725
1843.827030	596.242
1843.851285	751.634
1843.875540	867.81
1843.899794	1086.76
1843.924050	1336.11
1843.948305	1436.93
1843.972560	1121.41
1843.996816	696.242
1844.021071	572.222
1844.045327	551.797
1844.069583	497.386
1844.093839	407.353
1844.118096	374.837
1844.142352	384.477
1844.166609	378.268
1844.190866	314.216
1844.215123	311.438
1844.239380	334.804
1844.263637	383.497
1844.287895	351.471
1844.312152	297.712
1844.336410	308.17
1844.360668	288.725
1844.384926	261.438
1844.409184	269.935
1844.433443	287.255
1844.457701	340.196
1844.481960	425.49
1844.506219	447.059
1844.530478	334.804
1844.554737	261.765
1844.578997	333.66
1844.603256	414.379
1844.627516	385.621
1844.651776	338.725
1844.676036	372.222
1844.700296	444.771
1844.724556	486.765
1844.748817	475.163
1844.773077	436.438
1844.797338	411.111
1844.821599	409.967
1844.845860	453.595
1844.870121	493.301
1844.894383	599.346
1844.918645	734.477
1844.942906	784.314
1844.967168	630.556
1844.991430	495.261
1845.015693	521.569
1845.039955	550.49
1845.064217	483.17
1845.088480	424.837
1845.112743	401.471
1845.137006	340.85
1845.161269	253.105
1845.185533	216.993
1845.209796	250.654
1845.234060	312.582
1845.258324	371.569
1845.282588	333.333
1845.306852	287.418
1845.331116	298.856
1845.355381	335.948
1845.379645	341.83
1845.403910	331.209
1845.428175	350
1845.452440	385.131
1845.476705	373.203
1845.500971	320.261
1845.525236	281.046
1845.549502	262.582
1845.573768	282.68
1845.598034	333.987
1845.622300	373.856
1845.646567	339.706
1845.670833	318.301
1845.695100	322.712
1845.719367	316.667
1845.743634	289.052
1845.767901	344.118
1845.792169	383.824
1845.816436	383.007
1845.840704	310.294
1845.864972	289.706
1845.889240	298.366
1845.913508	335.131
1845.937776	380.556
1845.962044	450.327
1845.986313	484.15
1846.010582	435.784
1846.034851	380.392
1846.059120	389.543
1846.083389	426.471
1846.107659	393.464
1846.131928	370.915
1846.156198	399.837
1846.180468	426.471
1846.204738	364.379
1846.229008	268.137
1846.253278	256.699
1846.277549	294.771
1846.301820	348.693
1846.326091	351.634
1846.350362	341.83
1846.374633	316.503
1846.398904	307.353
1846.423176	287.418
1846.447447	305.392
1846.471719	283.497
1846.495991	245.261
1846.520263	236.111
1846.544535	293.137
1846.568808	327.778
1846.593081	327.941
1846.617353	338.889
1846.641626	297.549
1846.665899	261.928
1846.690173	249.02
1846.714446	266.667
1846.738720	279.248
1846.762993	300.654
1846.787267	330.065
1846.811541	357.516
1846.835815	383.007
1846.860090	417.647
1846.884364	364.869
1846.908639	300.98
1846.932914	323.203
1846.957189	366.993
1846.981464	346.895
1847.005739	321.078
1847.030015	334.314
1847.054291	386.275
1847.078566	363.399
1847.102842	293.137
1847.127118	338.562
1847.151395	445.261
1847.175671	501.471
1847.199948	417.81
1847.224224	365.196
1847.248501	354.412
1847.272778	308.66
1847.297056	295.098
1847.321333	342.81
1847.345611	361.601
1847.369888	323.203
1847.394166	236.928
1847.418444	194.935
1847.442723	227.124
1847.467001	292.32
1847.491279	321.569
1847.515558	320.261
1847.539837	290.196
1847.564116	243.627
1847.588395	240.523
1847.612674	263.725
1847.636954	267.81
1847.661233	254.085
1847.685513	278.922
1847.709793	332.19
1847.734073	348.856
1847.758354	309.15
1847.782634	278.758
1847.806915	295.261
1847.831195	329.412
1847.855476	366.013
1847.879757	440.196
1847.904039	470.098
1847.928320	443.954
1847.952602	362.092
1847.976883	281.536
1848.001165	260.458
1848.025447	277.614
1848.049729	313.072
1848.074012	323.529
1848.098294	274.183
1848.122577	249.02
1848.146860	224.346
1848.171143	263.889
1848.195426	281.209
1848.219709	262.418
1848.243992	230.392
1848.268276	224.837
1848.292560	253.268
1848.316844	346.732
1848.341128	375
1848.365412	335.621
1848.389697	327.614
1848.413981	315.523
1848.438266	341.503
1848.462551	383.007
1848.486836	386.438
1848.511121	357.68
1848.535406	344.935
1848.559692	358.007
1848.583978	406.863
1848.608264	437.909
1848.632550	355.556
1848.656836	274.837
1848.681122	292.32
1848.705409	343.464
1848.729695	322.386
1848.753982	270.425
1848.778269	252.451
1848.802556	244.118
1848.826843	261.765
1848.851131	303.268
1848.875418	288.562
1848.899706	255.392
1848.923994	262.092
1848.948282	292.484
1848.972571	288.562
1848.996859	284.641
1849.021147	305.882
1849.045436	348.693
1849.069725	400.327
1849.094014	379.085
1849.118303	329.902
1849.142593	275.163
1849.166882	272.712
1849.191172	333.007
1849.215462	341.993
1849.239752	304.902
1849.264042	292.484
1849.288332	311.928
1849.312623	316.83
1849.336913	299.673
1849.361204	247.222
1849.385495	217.484
1849.409786	190.85
1849.434078	208.333
1849.458369	227.451
1849.482661	240.523
1849.506952	231.699
1849.531244	249.51
1849.555536	325.98
1849.579829	328.595
1849.604121	255.882
1849.628413	242.484
1849.652706	262.092
1849.676999	229.412
1849.701292	163.889
1849.725585	170.098
1849.749879	260.621
1849.774172	302.614
1849.798466	299.837
1849.822760	362.418
1849.847054	480.882
1849.871348	540.359
1849.895642	486.601
1849.919937	390.359
1849.944231	372.712
1849.968526	378.268
1849.992821	293.301
